+++++++++++++++++++ BEGIN  Test Case CR +++++++++++++++++++
TEST PIA PIB - POA 160-column binary write:
TEST PIC PID - POC 160-column character binary write:
TEST PIE PIF - POG 80-column alphanumeric write:
TEST PIG PIH - POL 80-column alphanumeric character-per-word write:
TEST POA POB - PIA 160-column binary read:
TEST POC POD - PIC 160-column character binary read:
TEST POG POH - PIE 80-column alphanumeric read:
TEST POL POK (sic) - PIG 80-column alphanumeric character-per-word read:

These tests ran as expected.


+++++++++++++++++++ BEGIN  Test Case MT +++++++++++++++++++
TEST A - MRWD, MFR, MBR, MLW, MBSK, MLB, MFSK, MGAP, writing max block, MWIPE - should terminate normally:
TEST B - GAP in unWIPEd area - should fail "Impossible I/O operation":
TEST C - valid WIPE at end of data - should end normally:
TEST D - reading past the end of data - should fail "Impossible I/O operation":
TEST E - attempt to write past PET - should fail "Impossible I/O operation":
TEST F - MW, MWE, MFRE and MBRE - should end normally:
TEST G - WIPE entire tape, leaving it unlabelled - should end normally:
TEST H - writing to ETW - should end normally:
TEST I - MBR at BTW - should LIV:
TEST J - MBSK at BTW - should LIV:
TEST K - MBR after label block, R/W 1-word blocks - should end normally:
TEST L - R/W 32K-word blocks - should end normally:
TEST T - like TEST A but for 7-track decks - should end normally:
TEST TRO - like TEST T but without WPR - should fail:
TEST OUT 2 - should end normally:

These tests ran as expected.


+++++++++++++++++++ BEGIN  Test Case DR +++++++++++++++++++
TEST TDRUM     POA, PIA.
TEST TDRUMR2EM POA, PIB.
TEST TDRUMW2EM POB, PIA.
TEST TDROUTS   11, 12, 13, 14.
TEST TDROUTFAILS   13.
TEST TDROUTFAILS   11, 13.

These tests ran as expected.


+++++++++++++++++++ BEGIN  Test Case FD +++++++++++++++++++
TEST TDISC     POA, PIA, PMA, PMF.
TEST TDISCOR   POA, PIA, PMA, PMF.
TEST TDISCEM   POB, PIA, PMA.
TEST TDISCFH   POC, PIC done.
TEST TDISCFHNS POC, POK, PIC, PIG.
TEST TFDOUTS 41, 42, 43, 44, 45.
TEST TFDOUTFAILS 41 with no discs reserved.
TEST TFDOUTFAILS 44, 45 too many 45s.

These tests ran as expected.


+++++++++++++++++++ BEGIN  Test Case HIG +++++++++++++++++++
The signature of this test should be #6442100001003204. It was as follows:
Digital signature of traced orders = #6442100001003204.
------------------- END OF Test Case HIG -------------------


+++++++++++++++++++ BEGIN  Test Case LOG +++++++++++++++++++
The signature of this test should be #2012100001003204. It was as follows:
Digital signature of traced orders = #2012100001003204.
------------------- END OF Test Case LOG -------------------


+++++++++++++++++++ BEGIN  Test Case DMP +++++++++++++++++++
The signature of this test should be #5132117202617243. It was as follows:
Digital signature of traced orders = #5132117202617243.
------------------- END OF Test Case DMP -------------------


+++++++++++++++++++ BEGIN  Test Case REM +++++++++++++++++++
The signature of this test should be #1361462532433030. It was as follows:
Digital signature of traced orders = #1361462532433030.
------------------- END OF Test Case REM -------------------


+++++++++++++++++++ BEGIN  Test Case DVD +++++++++++++++++++
The signature of this test should be #3165330512763021. It was as follows:
Digital signature of traced orders = #3165330512763021.
------------------- END OF Test Case DVD -------------------


+++++++++++++++++++ BEGIN  Test Case ACK +++++++++++++++++++
The signature of this test should be #4657410657321314. It was as follows:
Digital signature of traced orders = #4657410657321314.
------------------- END OF Test Case ACK -------------------


+++++++++++++++++++ BEGIN  Test Case HLT +++++++++++++++++++

TP0:
===
AEFDBC
|
A
B
C
|
CCC
FACA
DFDC
DBDB
FBCEE
BBBBBBB
AEABAEAB
AEEAEABBB
ADADADADAD
ABCDEABCDEABCDEABCDEABCDEABCDEABCDE
|
  1045|===
The signature of this test should be #6151525720423034. It was as follows:
Digital signature of traced orders = #1053600074412203.
------------------- END OF Test Case HLT -------------------


+++++++++++++++++++ BEGIN  Test Case HKT +++++++++++++++++++

TP0:
===
AEFDBC
|
A
B
C
|
CCC
FACA
DFDC
DBDB
FBCEE
BBBBBBB
AEABAEAB
AEEAEABBB
ADADADADAD
ABCDEABCDEABCDEABCDEABCDEABCDEABCDE
|
  1045|===
The signature of this test should be #6151525720423034. It was as follows:
Digital signature of traced orders = #1053600074412203.
------------------- END OF Test Case HKT -------------------


+++++++++++++++++++ BEGIN  Test Case FLU +++++++++++++++++++

TP0:
===

RAN/EL/000M03S/000M08S  SIZE    297

Propagation of an Impulse into a Viscous-locking Medium



    Delta alpha = 0.1000


    alpha             lambda                lambda.sqrt(2alpha) g

    0.0000             INFINITY             1.00000             1.00000
    0.1000            2.0201~ +0            0.90340             0.73452
    0.2000            1.2812~ +0            0.81029             0.52525
    0.3000            9.2712~ -1            0.71814             0.36101
    0.4000            6.9943~ -1            0.62559             0.24038

    0.5000            5.3160~ -1            0.53160             0.26796
    0.6000            3.9727~ -1            0.43519             0.30384
    0.7000            2.8340~ -1            0.33532             0.34489
    0.8000            1.8242~ -1            0.23075             0.38947
    0.9000            8.9284~ -2            0.11979             0.43642

    1.0000            0.0000                0.00000             0.48394


===

LP0:
===

RAN/EL/008M49S/008M56S===
The signature of this test should be #0613355475443420. It was as follows:
Digital signature of traced orders = #0613355475443420.
------------------- END OF Test Case FLU -------------------


+++++++++++++++++++ BEGIN  Test Case RLT +++++++++++++++++++
The signature of this test should be #3506450617016266. It was as follows:
Digital signature of traced orders = #3506450617016266.
------------------- END OF Test Case RLT -------------------


+++++++++++++++++++ BEGIN  Test Case TO4 +++++++++++++++++++

TP0:
===
TEST A
LABEL F
MLB OK
LABEL B
MLB OK
REWOUND
MLB OK
LABEL F
WROTE L
MLB OK
WROTE L
BSKP OK
MLB OK
MLB OK
MLB OK
BSKP OK
REWOUND
FSKP OK
FSKP OK
FSKP OK
GAP OK
MLB OK
BSKP OK
FSKP OK
BIGW OK
REWOUND
FSKP OK
BIGR OK
REWOUND
FSKP OK
BIGBR OK       
LABEL F
WIPED
MLB OK
GAP OK
FINISH
===
The signature of this test should be #3257037520362447. It was as follows:
Digital signature of traced orders = #3257037520362447.
------------------- END OF Test Case TO4 -------------------


+++++++++++++++++++ BEGIN  Test Case TOX +++++++++++++++++++
The signature of this test should be #5346716617576440. It was as follows:
Digital signature of traced orders = #5346716617576440.
------------------- END OF Test Case TOX -------------------


+++++++++++++++++++ BEGIN  Test Case MTW +++++++++++++++++++

TP0:
===

LINE  18 REL LINE   8 POSITION IDENTIFIER lab
END COMMENT
LINE  24 REL LINE   5 POSITION IDENTIFIER p0
END COMMENT
LINE  32 REL LINE   7 POSITION IDENTIFIER p3
END COMMENT
LINE  46 REL LINE  13 POSITION IDENTIFIER pout
END COMMENT
IDENTIFIER a NOT USED
DECLARED ON LINE   2
IDENTIFIER b NOT USED
DECLARED ON LINE   2
IDENTIFIER c NOT USED
DECLARED ON LINE   2
RAN/EL/000M05S/000M16S  SIZE    613
===

LP0:
===

RAN/EL/006M57S/007M04S===
The signature of this test should be #2374020431503051. It was as follows:
Digital signature of traced orders = #2374020431503051.
------------------- END OF Test Case MTW -------------------


+++++++++++++++++++ BEGIN  Test Case WAB +++++++++++++++++++
The signature of this test should be #6071426761537263. It was as follows:
Digital signature of traced orders = #6071426761537263.
------------------- END OF Test Case WAB -------------------


+++++++++++++++++++ BEGIN  Test Case FLO +++++++++++++++++++
The signature of this test should be #3271342634660173. It was as follows:
Digital signature of traced orders = #3271342634660173.
------------------- END OF Test Case FLO -------------------


+++++++++++++++++++ BEGIN  Test Case 1DH +++++++++++++++++++

LP0:
===
CASE 1 GENERAL DELTAR ON DESK-H;                                                                                     
NODE-RADII     
   0.000        
           1.98           2.04           2.10           2.17           2.23            2.29                                                            
---TIME---TEMPERATURES 
   0.000        
          70.00          70.00          70.00          70.00          70.00           70.00                                                            

              
   0.058        
         161.78         120.89          96.61          83.39          77.12           75.31                                                            
   0.116        
         176.16         154.05         133.94         118.31         108.58          105.32                                                            
   0.174        
         192.72         170.71         153.84         141.87         134.73          132.38                                                            
   0.232        
         205.00         187.75         173.66         163.30         156.99          154.90                                                            
   0.290        
         216.24         201.26         189.35         180.73         175.53          173.81                                                            
   0.348        
         227.25         213.96         203.47         195.90         191.36          189.86                                                            
   0.406        
         235.57         224.50         215.60         209.11         205.19          203.89                                                            
   0.464        
         242.02         232.87         225.51         220.13         216.87          215.79                                                            
   0.522        
         249.00         240.68         234.15         229.47         226.66          225.74                                                            
   0.580        
         255.98         248.28         242.27         237.98         235.41          234.57                                                            
   0.638        
         261.23         254.68         249.45         245.65         243.37          242.61                                                            
   0.696        
         265.35         259.83         255.41         252.20         250.26          249.61                                                            
   0.754        
         270.75         265.22         260.98         258.00         256.23          255.65                                                            
   0.812        
         276.71         271.09         266.80         263.79         262.01          261.44                                                            
   0.870        
         281.07         276.13         272.23         269.42         267.73          267.18                                                            
   0.928        
         284.52         280.23         276.84         274.38         272.90          272.41                                                            
   0.986        
         288.86         284.53         281.22         278.89         277.51          277.06                                                            
   1.044        
         327.91         309.10         296.64         289.11         285.18          283.99                                                            
   1.102        
         346.71         329.83         316.73         307.45         301.96          300.16                                                            
   1.160        
         361.62         345.80         333.50         324.74         319.52          317.81                                                            
   1.218        
         377.30         361.71         349.72         341.24         336.22          334.57                                                            
   1.276        
         392.58         377.37         365.65         357.37         352.47          350.86                                                            
   1.334        
         403.84         390.54         380.05         372.51         367.98          366.49                                                            
   1.392        
         413.89         402.05         392.70         385.98         381.94          380.61                                                            
   1.450        
         421.40         411.46         403.51         397.73         394.24          393.08                                                            
   1.508        
         427.57         419.24         412.55         407.67         404.72          403.74                                                            
   1.566        
         438.16         428.87         421.84         416.95         414.07          413.13                                                            
   1.624        
         448.90         439.19         431.85         426.73         423.72          422.74                                                            
   1.682        
         454.69         446.84         440.56         436.01         433.27          432.36                                                            
   1.740        
         459.61         453.02         447.72         443.87         441.53          440.76                                                            
   1.798        
         468.06         460.69         455.12         451.23         448.95          448.21                                                            
   1.856        
         476.53         468.85         463.04         458.98         456.60          455.83                                                            
   1.914        
         482.63         475.77         470.41         466.59         464.31          463.56                                                            
   1.972        
         488.41         482.08         477.13         473.59         471.48          470.79                                                            
   2.030        
         495.16         488.72         483.79         480.31         478.26          477.58                                                            
   2.088        
         501.79         495.38         490.46         487.01         484.97          484.30                                                            
   2.146        
         507.31         501.38         496.77         493.49         491.53          490.89                                                            
   2.204        
         512.57         507.00         502.66         499.57         497.73          497.13                                                            
   2.262        
         516.23         511.53         507.78         505.07         503.43          502.89                                                            
   2.320        
         519.24         515.28         512.10         509.78         508.38          507.91                                                            
   2.378        
         524.39         519.94         516.57         514.23         512.85          512.40                                                            
   2.436        
         529.52         524.88         521.36         518.91         517.47          517.00                                                            
   2.494        
         533.33         529.13         525.86         523.53         522.14          521.69                                                            
   2.552        
         536.92         533.03         529.99         527.82         526.53          526.10                                                            
   2.610        
         540.93         537.03         534.04         531.92         530.67          530.26                                                            
   2.668        
         544.81         540.98         538.04         535.96         534.73          534.33                                                            
   2.726        
         551.58         546.57         542.91         540.44         539.02          538.56                                                            
   2.784        
         559.08         553.18         548.84         545.89         544.18          543.63                                                            
   2.842        
         560.36         556.59         553.41         551.02         549.55          549.07                                                            
   2.900        
         560.27         558.11         556.12         554.55         553.55          553.22                                                            
   2.958        
         565.96         562.18         559.48         557.68         556.65          556.32                                                            
   3.016        
         572.48         567.67         564.21         561.88         560.54          560.11                                                            
   3.074        
         576.38         572.15         568.85         566.51         565.12          564.67                                                            
   3.132        
         580.02         576.09         573.03         570.84         569.54          569.11                                                            
   3.190        
         583.50         579.80         576.93         574.88         573.66          573.26                                                            
   3.248        
         586.70         583.26         580.58         578.66         577.52          577.15                                                            
   3.306        
         590.82         587.12         584.33         582.38         581.23          580.86                                                            
   3.364        
         595.10         591.23         588.31         586.27         585.07          584.68                                                            
   3.422        
         596.90         594.02         591.65         589.90         588.84          588.49                                                            
   3.480        
         597.69         595.69         593.98         592.68         591.88          591.61                                                            
   3.538        
         600.07         597.85         596.15         594.96         594.26          594.03                                                            
   3.596        
         602.60         600.28         598.53         597.30         596.58          596.35                                                            
   3.654        
         605.28         602.86         601.02         599.75         598.99          598.75                                                            
   3.712        
         608.06         605.54         603.63         602.29         601.51          601.25                                                            
   3.770        
         610.95         608.32         606.33         604.95         604.13          603.87                                                            
   3.828        
         613.95         611.22         609.15         607.71         606.86          606.58                                                            

CASE 2 GENERAL DELTAR TEN DESK-H;                                                                                     
NODE-RADII     
   0.000        
